Information on 220 Channel
AVIRIS Data Set
Location

This data is from the AVIRIS (Airborne Visible/Infrared Imaging Spectrometer) built by JPL and flown by NASA/Ames on June 12, 1992. The scene is over an area 6 miles west of West Lafayette. The scene is a subset of a significantly larger image file.

These data are calibrated data. In other words the data values in the scene are proportional to radiance. 1000 has been added to the calibrated data so that all data values in this scene are positive. To convert the scene data values (SDV) to radiance values (RV), one must first subtact 1000 and then divide by the gain_factor that JPL used which is 500.

RV = (SDV-1000) / 500.

The RV units are W * cm^-2 * nm^-1 * sr^-1.

This information is dated November 1992. It came with the tape documentation from JPL for this AVIRIS data.
Spectral Calibration

FWHM = Full Width Half Maximum. In other words it is the width of the spectral band.

--------------------------------------------------------------- 
AVIRIS   Data    Center              Center            FWHM
 Band  Channel Wavelength   FWHM   Uncertainty     Uncertainty
  #       #       (nm)      (nm)       (nm)            (nm)
---------------------------------------------------------------
   1     (not used - the band was all 0's)
   2       1     400.02     9.78       0.92            0.50
   3       2     409.82     9.82       0.92            0.50
   4       3     419.62     9.85       0.93            0.50
   5       4     429.43     9.89       0.94            0.50
   6       5     439.25     9.92       0.95            0.50
   7       6     449.07     9.94       0.95            0.50
   8       7     458.90     9.97       0.96            0.50
   9       8     468.73     9.99       0.97            0.50
  10       9     478.57    10.01       0.97            0.50
  11      10     488.41    10.02       0.98            0.50
 
  12      11     498.26    10.04       0.99            0.50
  13      12     508.12    10.05       1.00            0.50
  14      13     517.98    10.05       1.00            0.50
  15      14     527.85    10.06       1.01            0.50
  16      15     537.72    10.06       1.02            0.50
  17      16     547.60    10.06       1.03            0.50
  18      17     557.49    10.05       1.03            0.50
  19      18     567.38    10.04       1.04            0.50
  20      19     577.28    10.03       1.05            0.50
  21      20     587.18    10.02       1.06            0.50
  
  22      21     597.09    10.00       1.06            0.50
  23      22     607.01     9.98       1.07            0.50
  24      23     616.93     9.96       1.08            0.50
  25      24     626.85     9.94       1.09            0.50
  26      25     636.78     9.91       1.09            0.50
  27      26     646.72     9.88       1.10            0.50
  28      27     656.67     9.84       1.11            0.50
  29      28     666.61     9.81       1.12            0.50
  30      29     676.57     9.77       1.12            0.50
  31      30     686.53     9.73       1.13            0.50
  
  32      31     696.50     9.68       1.14            0.50
  33     (not used - the band was all 0's)
  34      32     686.91     8.87       0.88            0.50
  35      33     696.55     8.87       0.88            0.50
  36      34     706.19     8.88       0.89            0.50
  37      35     715.83     8.88       0.89            0.50
  38      36     725.47     8.88       0.90            0.50
  39      37     735.11     8.89       0.90            0.50
  40      38     744.74     8.89       0.91            0.50
  41      39     754.38     8.89       0.91            0.50
  42      40     764.01     8.90       0.92            0.50
  
  43      41     773.64     8.90       0.92            0.50
  44      42     783.27     8.90       0.93            0.50
  45      43     792.91     8.91       0.93            0.50
  46      44     802.53     8.91       0.94            0.50
  47      45     812.21     8.91       0.94            0.50
  48      46     821.79     8.92       0.95            0.50
  49      47     831.41     8.92       0.95            0.50
  50      48     841.04     8.92       0.96            0.50
  51      49     850.66     8.93       0.96            0.50
  52      50     860.28     8.93       0.97            0.50
  
  53      51     869.91     8.93       0.97            0.50
  54      52     879.53     8.93       0.98            0.50
  55      53     889.14     8.94       0.98            0.50
  56      54     898.76     8.94       0.99            0.50
  57      55     908.38     8.94       0.99            0.50
  58      56     917.99     8.94       0.99            0.50
  59      57     927.61     8.95       1.00            0.50
  60      58     937.22     8.95       1.00            0.50
  61      59     946.83     8.95       1.01            0.50
  62      60     956.45     8.95       1.01            0.50
  
  63      61     966.06     8.95       1.02            0.50
  64      62     975.66     8.96       1.02            0.50
  65      63     985.27     8.96       1.03            0.50
  66      64     994.88     8.96       1.03            0.50
  67      65    1004.48     8.96       1.04            0.50
  68      66    1014.09     8.96       1.04            0.50
  69      67    1023.69     8.97       1.05            0.50
  70      68    1033.29     8.97       1.05            0.50
  71      69    1042.89     8.97       1.06            0.50
  72      70    1052.49     8.97       1.06            0.50
  
  73      71    1062.09     8.97       1.07            0.50
  74      72    1071.69     8.97       1.07            0.50
  75      73    1081.29     8.97       1.08            0.50
  76      74    1090.88     8.98       1.08            0.50
  77      75    1100.48     8.98       1.09            0.50
  78      76    1110.07     8.98       1.09            0.50
  79      77    1119.66     8.98       1.10            0.50
  80      78    1129.25     8.98       1.10            0.50
  81      79    1138.84     8.98       1.10            0.50
  82      80    1148.43     8.98       1.11            0.50
  
  83      81    1158.02     8.98       1.11            0.50
  84      82    1167.61     8.98       1.12            0.50
  85      83    1177.19     8.98       1.12            0.50
  86      84    1186.77     8.99       1.13            0.50
  87      85    1196.36     8.99       1.13            0.50
  88      86    1205.94     8.99       1.14            0.50
  89      87    1215.52     8.99       1.14            0.50
  90      88    1225.10     8.99       1.15            0.50
  91      89    1234.68     8.99       1.15            0.50
  92      90    1244.26     8.99       1.16            0.50
  
  93      91    1253.83     8.99       1.16            0.50
  94      92    1263.41     8.99       1.17            0.50
  95      93    1272.98     8.99       1.17            0.50
  96      94    1282.55     8.99       1.18            0.50
  97     (not used - the band was all 0's)
  98      95    1273.00     9.18       1.56            0.70
  99      96    1282.96     9.20       1.57            0.70
 100      97    1292.93     9.22       1.57            0.70
 101      98    1302.89     9.24       1.58            0.70
 102      99    1312.85     9.26       1.58            0.70
 103     100    1322.81     9.28       1.59            0.70
 
 104     101    1332.77     9.30       1.59            0.70
 105     102    1342.73     9.32       1.60            0.70
 106     103    1352.68     9.34       1.60            0.70
 107     104    1362.64     9.36       1.61            0.70
 108     105    1372.59     9.37       1.61            0.70
 109     106    1382.54     9.39       1.62            0.70
 110     107    1392.49     9.41       1.62            0.70
 111     108    1402.44     9.43       1.63            0.70
 112     109    1412.39     9.44       1.63            0.70
 113     110    1422.34     9.46       1.64            0.70
 
 114     111    1432.28     9.47       1.64            0.70
 115     112    1442.23     9.49       1.65            0.70
 116     113    1452.17     9.51       1.65            0.70
 117     114    1462.11     9.52       1.66            0.70
 118     115    1472.05     9.54       1.66            0.70
 119     116    1481.99     9.55       1.67            0.70
 120     117    1491.92     9.57       1.67            0.70
 121     118    1501.86     9.58       1.68            0.70
 122     119    1511.79     9.59       1.68            0.70
 123     120    1521.73     9.61       1.69            0.70
 
 124     121    1531.66     9.62       1.69            0.70
 125     122    1541.59     9.63       1.70            0.70
 126     123    1551.52     9.65       1.70            0.70
 127     124    1561.44     9.66       1.71            0.70
 128     125    1571.37     9.67       1.71            0.70
 129     126    1581.30     9.68       1.72            0.70
 130     127    1591.22     9.70       1.72            0.70
 131     128    1601.14     9.71       1.73            0.70
 132     129    1611.06     9.72       1.73            0.70
 133     130    1620.98     9.73       1.74            0.70
 
 134     131    1630.90     9.74       1.74            0.70
 135     132    1640.81     9.75       1.75            0.70
 136     133    1650.73     9.76       1.75            0.70
 137     134    1660.64     9.77       1.76            0.70
 138     135    1670.56     9.78       1.77            0.70
 139     136    1680.47     9.79       1.77            0.70
 140     137    1690.38     9.80       1.78            0.70
 141     138    1700.28     9.81       1.78            0.70
 142     139    1710.19     9.82       1.79            0.70
 143     140    1720.10     9.82       1.79            0.70
 
 144     141    1730.00     9.83       1.80            0.70
 145     142    1739.90     9.84       1.80            0.70
 146     143    1749.81     9.85       1.81            0.70
 147     144    1759.71     9.85       1.81            0.70
 148     145    1769.60     9.86       1.82            0.70
 149     146    1779.50     9.87       1.82            0.70
 150     147    1789.40     9.87       1.83            0.70
 
 151     148    1799.29     9.88       1.83            0.70
 152     149    1809.19     9.89       1.84            0.70
 153     150    1819.08     9.89       1.84            0.70
 154     151    1828.97     9.90       1.85            0.70
 155     152    1838.86     9.90       1.85            0.70
 156     153    1848.75     9.91       1.86            0.70
 157     154    1858.63     9.91       1.86            0.70
 158     155    1868.52     9.91       1.87            0.70
 159     156    1878.40     9.92       1.87            0.70
 160     157    1888.28     9.92       1.87            0.70
 161  (not used - the band was all 0's)
 162     158    1883.24    13.72       2.25            1.85
 163     159    1893.25    13.75       2.25            1.85
 164     160    1903.26    13.79       2.26            1.85
 
 165     161    1913.26    13.82       2.26            1.85
 166     162    1923.27    13.85       2.27            1.85
 167     163    1933.27    13.88       2.28            1.85
 168     164    1943.27    13.91       2.28            1.85
 169     165    1953.26    13.95       2.29            1.85
 170     166    1963.25    13.97       2.29            1.85
 171     167    1973.24    14.00       2.30            1.85
 172     168    1983.23    14.03       2.31            1.85
 173     169    1993.22    14.06       2.31            1.85
 174     170    2003.20    14.09       2.32            1.85
 
 175     171    2013.18    14.11       2.32            1.85
 176     172    2023.16    14.14       2.33            1.85
 177     173    2033.13    14.16       2.34            1.85
 178     174    2043.10    14.19       2.34            1.85
 179     175    2053.07    14.21       2.35            1.85
 180     176    2063.04    14.23       2.35            1.85
 181     177    2073.00    14.26       2.36            1.85
 182     178    2082.97    14.28       2.37            1.85
 183     179    2092.92    14.30       2.37            1.85
 184     180    2102.88    14.32       2.38            1.85
 
 185     181    2112.83    14.34       2.38            1.85
 186     182    2122.78    14.36       2.39            1.85
 187     183    2132.73    14.38       2.40            1.85
 188     184    2142.68    14.39       2.40            1.85
 189     185    2152.62    14.41       2.41            1.85
 190     186    2162.56    14.43       2.41            1.85
 191     187    2172.50    14.44       2.42            1.85
 192     188    2182.43    14.46       2.43            1.85
 193     189    2192.37    14.47       2.43            1.85
 194     190    2202.30    14.49       2.44            1.85
 
 195     191    2260.22    14.50       2.44            1.85
 196     192    2270.15    14.51       2.45            1.85
 197     193    2232.07    14.52       2.46            1.85
 198     194    2241.99    14.53       2.46            1.85
 199     195    2251.90    14.54       2.47            1.85
 200     196    2261.82    14.55       2.47            1.85
 201     197    2271.73    14.56       2.48            1.85
 202     198    2281.64    14.57       2.49            1.85
 203     199    2291.54    14.58       2.49            1.85
 204     200    2301.45    14.58       2.50            1.85
 
 205     201    2311.35    14.59       2.50            1.85
 206     202    2321.25    14.60       2.51            1.85
 207     203    2331.14    14.60       2.52            1.85
 208     204    2341.03    14.61       2.52            1.85
 209     205    2350.92    14.61       2.53            1.85
 210     206    2360.81    14.61       2.53            1.85
 211     207    2370.70    14.61       2.54            1.85
 212     208    2380.58    14.61       2.55            1.85
 213     209    2390.46    14.62       2.55            1.85
 214     210    2400.33    14.62       2.56            1.85
 
 215     211    2410.21    14.62       2.56            1.85
 216     212    2420.08    14.61       2.57            1.85
 217     213    2429.95    14.61       2.58            1.85
 218     214    2439.81    14.61       2.58            1.85
 219     215    2449.68    14.61       2.59            1.85
 220     216    2459.54    14.60       2.59            1.85
 221     217    2469.40    14.60       2.60            1.85
 222     218    2479.25    14.59       2.61            1.85
 223     219    2489.11    14.59       2.61            1.85
 224     220    2498.96    14.58       2.62            1.85
---------------------------------------------------------------
